File: ELECTROCHEM_DATA/26.11.2021 ПК154 BF4 1e-4 M TBABF4 0,1 M MeCN 1 mm anode +0.8 V/CA.csv
Corrected time (s);WE(1).Current (A);Time (s);WE(1).Potential (V);Index
0;0.000391602;15.9802;0.799866;1
30;0.000364868;45.9802;0.800171;4
60;0.000356628;75.9802;0.799866;7
90;0.000332977;105.98;0.799561;10
120;0.00032663;135.98;0.799561;13
150;0.000316772;165.98;0.799255;16
180;0.000298279;195.98;0.799561;19
210;0.000294586;225.98;0.799255;22
240;0.000277496;255.98;0.799866;25
270;0.000268463;285.98;0.799561;28
300;0.000256042;315.98;0.79895;31
330;0.000254669;345.98;0.799255;34
360;0.000246674;375.98;0.799561;37
390;0.00023175;405.98;0.799255;40
420;0.000222961;435.98;0.799561;43
450;0.000216797;465.98;0.799866;46
480;0.000211945;495.98;0.799561;49
510;0.000207458;525.98;0.799561;52
540;0.000199707;555.98;0.799255;55
570;0.000188416;585.98;0.799561;58
600;0.000186188;615.98;0.799255;61
630;0.000178986;645.98;0.799255;64
660;0.000174011;675.98;0.799866;67
690;0.000167053;705.98;0.799255;70
720;0.000165314;735.98;0.799255;73
750;0.000162567;765.98;0.799866;76
780;0.000156281;795.98;0.799866;79
810;0.000148102;825.98;0.799255;82
840;0.000144501;855.98;0.799255;85
870;0.0001409;885.98;0.799561;88
900;0.000138397;915.98;0.799561;91
930;0.000132538;945.98;0.799255;94
960;0.000129364;975.98;0.799561;97
990;0.00012735;1005.98;0.799561;100
1020;0.000123413;1035.98;0.799561;103
1050;0.000118805;1065.98;0.799866;106
1080;0.000114502;1095.98;0.799866;109
1110;0.000113464;1125.98;0.799866;112
1140;0.000109528;1155.98;0.799255;115
1170;0.000106873;1185.98;0.799866;118
1200;0.000104462;1215.98;0.799561;121
1230;0.000105469;1245.98;0.799561;124
1260;0.000102203;1275.98;0.799561;127
1290;9.85107e-05;1305.98;0.799561;130
1320;9.49402e-05;1335.98;0.799561;133
1350;9.40857e-05;1365.98;0.799561;136
1380;9.31091e-05;1395.98;0.799561;139
1410;8.81653e-05;1425.98;0.799255;142
1440;8.86536e-05;1455.98;0.799561;145
1470;8.56628e-05;1485.98;0.799561;148
1500;8.63342e-05;1515.98;0.799561;151
1530;8.53271e-05;1545.98;0.799561;154
1560;8.19702e-05;1575.98;0.799561;157
1590;8.12073e-05;1605.98;0.799561;160
1620;7.94067e-05;1635.98;0.799255;163
1650;7.91931e-05;1665.98;0.799255;166
1680;7.7179e-05;1695.98;0.799561;169
1710;7.5592e-05;1725.98;0.799255;172
1740;7.6355e-05;1755.98;0.799561;175
1770;7.37915e-05;1785.98;0.800171;178
1800;7.36084e-05;1815.98;0.799561;181
1830;7.1991e-05;1845.98;0.800171;184
1860;7.15942e-05;1875.98;0.799866;187
1890;6.97021e-05;1905.98;0.799255;190
1920;6.86951e-05;1935.98;0.799561;193
1950;6.87561e-05;1965.98;0.800171;196
1980;6.81763e-05;1995.98;0.799255;199
2010;6.6803e-05;2025.98;0.799866;202
2040;6.51855e-05;2055.98;0.800171;205
2070;6.5979e-05;2085.98;0.799866;208
2100;6.46362e-05;2115.98;0.799561;211
2130;6.45447e-05;2145.98;0.799866;214
2160;6.27441e-05;2175.98;0.799561;217
2190;6.32324e-05;2205.98;0.799255;220
2220;6.03638e-05;2235.98;0.799866;223
2250;6.13403e-05;2265.98;0.799255;226
2280;5.96313e-05;2295.98;0.799866;229
2310;5.98755e-05;2325.98;0.799866;232
2340;5.85632e-05;2355.98;0.799561;235
2370;5.82581e-05;2385.98;0.799866;238
2400;5.75867e-05;2415.98;0.799866;241
2430;5.62134e-05;2445.98;0.799561;244
2460;5.55115e-05;2475.98;0.799866;247
2490;5.53589e-05;2505.98;0.799561;250
2520;5.41382e-05;2535.98;0.799561;253
2550;5.35583e-05;2565.98;0.799255;256
2580;5.31616e-05;2595.98;0.799561;259
2610;5.22156e-05;2625.98;0.799255;262
2640;5.34973e-05;2655.98;0.798645;265
2670;5.26123e-05;2685.98;0.799866;268
2700;5.11169e-05;2715.98;0.799866;271
2730;4.96826e-05;2745.98;0.799255;274
2760;5.09033e-05;2775.98;0.799255;277
2790;4.9527e-05;2805.98;0.800171;280
2820;4.91241e-05;2835.98;0.79895;283
2850;4.9353e-05;2865.98;0.799561;286
2880;4.84619e-05;2895.98;0.799561;289
2910;4.79706e-05;2925.98;0.799866;292
2940;4.8996e-05;2955.98;0.799255;295
2970;4.64539e-05;2985.98;0.799866;298
3000;4.69513e-05;3015.98;0.799561;301
3030;4.71405e-05;3045.98;0.799866;304
3060;4.57733e-05;3075.98;0.799561;307
3090;4.58923e-05;3105.98;0.799866;310
3120;4.60144e-05;3135.98;0.799866;313
3150;4.50348e-05;3165.98;0.799255;316
3180;4.40002e-05;3195.98;0.799255;319
3210;4.31763e-05;3225.98;0.799561;322
3240;4.3573e-05;3255.98;0.800476;325
3270;4.30267e-05;3285.98;0.799561;328
3300;4.31305e-05;3315.98;0.799561;331
3330;4.26453e-05;3345.98;0.799866;334
3360;4.30786e-05;3375.98;0.799866;337
3390;4.16656e-05;3405.98;0.799561;340
3420;4.09027e-05;3435.98;0.799255;343
3450;4.15985e-05;3465.98;0.799561;346
3480;4.07288e-05;3495.98;0.799255;349
3510;4.01917e-05;3525.98;0.799255;352
3540;4.0033e-05;3555.98;0.799561;355
3570;3.99994e-05;3585.98;0.799561;358
3600;3.98773e-05;3615.98;0.799561;361
3630;3.89374e-05;3645.98;0.799255;364
3660;3.84155e-05;3675.98;0.799255;367
3690;3.86963e-05;3705.98;0.79895;370
3720;3.81073e-05;3735.98;0.800171;373
3750;3.79761e-05;3765.98;0.799255;376
3780;3.80005e-05;3795.98;0.800171;379
3810;3.73047e-05;3825.98;0.799561;382
3840;3.62427e-05;3855.98;0.799255;385
3870;3.67279e-05;3885.98;0.799561;388
3900;3.69202e-05;3915.98;0.79895;391
3930;3.65448e-05;3945.98;0.799866;394
3960;3.58337e-05;3975.98;0.799255;397
3990;3.57178e-05;4005.98;0.799561;400
4020;3.56201e-05;4035.98;0.799561;403
4050;3.44666e-05;4065.98;0.799866;406
4080;3.5199e-05;4095.98;0.799866;409
4110;3.51532e-05;4125.98;0.799866;412
4140;3.4256e-05;4155.98;0.799866;415
4170;3.37158e-05;4185.98;0.799255;418
4200;3.43811e-05;4215.98;0.799561;421
4230;3.3432e-05;4245.98;0.799866;424
4260;3.33618e-05;4275.98;0.800171;427
4290;3.29742e-05;4305.98;0.799866;430
4320;3.27179e-05;4335.98;0.799561;433
4350;3.26447e-05;4365.98;0.799561;436
4380;3.18909e-05;4395.98;0.799561;439
4410;3.15491e-05;4425.98;0.799866;442
4440;3.25623e-05;4455.98;0.799866;445
4470;3.1781e-05;4485.98;0.799255;448
4500;3.10181e-05;4515.98;0.799255;451
4530;3.11676e-05;4545.98;0.799561;454
4560;3.09082e-05;4575.98;0.799255;457
4590;3.02338e-05;4605.98;0.799561;460
4620;2.97516e-05;4635.98;0.799561;463
4650;2.98309e-05;4665.98;0.799255;466
4680;2.9834e-05;4695.98;0.799866;469
4710;2.98615e-05;4725.98;0.799561;472
4740;2.94373e-05;4755.98;0.799561;475
4770;2.92786e-05;4785.98;0.799561;478
4800;2.91229e-05;4815.98;0.799866;481
4830;2.90558e-05;4845.98;0.799561;484
4860;2.83722e-05;4875.98;0.799866;487
4890;2.76978e-05;4905.98;0.799561;490
4920;2.77161e-05;4935.98;0.799561;493
4950;2.72766e-05;4965.98;0.79895;496
4980;2.76611e-05;4995.98;0.799561;499
5010;2.74628e-05;5025.98;0.799561;502
5040;2.7002e-05;5055.98;0.799866;505
5070;2.69653e-05;5085.98;0.799255;508
5100;2.6828e-05;5115.98;0.799866;511
5130;2.71454e-05;5145.98;0.799866;514
5160;2.64526e-05;5175.98;0.800171;517
5190;2.62421e-05;5205.98;0.799561;520
5220;2.63092e-05;5235.98;0.799255;523
5250;2.63489e-05;5265.98;0.799561;526
5280;2.6178e-05;5295.98;0.800171;529
5310;2.57599e-05;5325.98;0.799255;532
5340;2.55768e-05;5355.98;0.799866;535
5370;2.52441e-05;5385.98;0.799866;538
5400;2.59033e-05;5415.98;0.799255;541
5430;3.17352e-05;5445.98;0.799561;544
5460;3.34534e-05;5475.98;0.799561;547
5490;3.29834e-05;5505.98;0.799866;550
5520;3.21411e-05;5535.98;0.799561;553
5550;3.28644e-05;5565.98;0.799561;556
5580;3.22876e-05;5595.98;0.799255;559
5610;3.21045e-05;5625.98;0.799255;562
5640;3.19244e-05;5655.98;0.799255;565
5670;3.28217e-05;5685.98;0.799866;568
5700;3.14453e-05;5715.98;0.799255;571
5730;3.17322e-05;5745.98;0.799866;574
5760;3.12775e-05;5775.98;0.799561;577
5790;3.10669e-05;5805.98;0.799561;580
5800;3.1134e-05;5815.98;0.799561;581